      20    2400    0     datakind beginning-row linenumbers
MSCD Version 1.00 Yufeng Chen and Michel A Van Hove
Lawrence Berkeley National Laboratory (LBNL), Berkeley, CA 94720
Copyright (c) Van Hove Group 1997. All rights reserved
--------------------------------------------------------------
angle-resolved photoemission extended fine structure (ARPEFS)
experimental data for Fe 2p3/2 from Fe on STO(100)  excited with hv=1810eV
provided by Pancotti et al. (LNLS in 9, June 2010)
   intial angular momentum (l) = 1
   photon polarization angle (polar,azimuth) = (  30.0,   0.0 ) (deg)
   sample temperature = 300 K
   photoemission angular scan curves
     (20 2400 12.2000)
      20     2400       1       20     120     2400
       1     120       19.5900     12.2000      1.00000      0.00000
      1.00000      38556.70      36356.40      0.060520
      4.00000      38016.30      36356.40      0.045654
      7.00000      39019.80      36356.40      0.073258
      10.00000      39051.50      36356.40      0.074129
      13.00000      36723.10      36356.40      0.010084
      16.00000      38633.10      36356.40      0.062621
      19.00000      39744.90      36356.40      0.093202
      22.00000      39854.80      36356.40      0.096224
      25.00000      38655.20      36356.40      0.063229
      28.00000      37538.60      36356.40      0.032517
      31.00000      38172.50      36356.40      0.049953
      34.00000      37165.90      36356.40      0.022264
      37.00000      37547.80      36356.40      0.032769
      40.00000      37203.60      36356.40      0.023302
      43.00000      38170.70      36356.40      0.049903
      46.00000      37286.70      36356.40      0.025587
      49.00000      36599.30      36356.40      0.006680
      52.00000      35345.00      36356.40      -0.027818
      55.00000      35559.50      36356.40      -0.021919
      58.00000      34400.60      36356.40      -0.053795
      61.00000      34376.70      36356.40      -0.054454
      64.00000      35577.90      36356.40      -0.021412
      67.00000      35412.00      36356.40      -0.025978
      70.00000      34585.00      36356.40      -0.048723
      73.00000      34644.50      36356.40      -0.047086
      76.00000      34256.30      36356.40      -0.057766
      79.00000      33325.20      36356.40      -0.083375
      82.00000      35037.20      36356.40      -0.036285
      85.00000      36271.70      36356.40      -0.002329
      88.00000      36926.50      36356.40      0.015679
      92.00000      36926.50      36356.40      0.015679
      95.00000      36271.70      36356.40      -0.002329
      98.00000      35037.20      36356.40      -0.036285
      101.00000      33325.20      36356.40      -0.083375
      104.00000      34256.30      36356.40      -0.057766
      107.00000      34644.50      36356.40      -0.047086
      110.00000      34585.00      36356.40      -0.048723
      113.00000      35412.00      36356.40      -0.025978
      116.00000      35577.90      36356.40      -0.021412
      119.00000      34376.70      36356.40      -0.054454
      122.00000      34400.60      36356.40      -0.053795
      125.00000      35559.50      36356.40      -0.021919
      128.00000      35345.00      36356.40      -0.027818
      131.00000      36599.30      36356.40      0.006680
      134.00000      37286.70      36356.40      0.025587
      137.00000      38170.70      36356.40      0.049903
      140.00000      37203.60      36356.40      0.023302
      143.00000      37547.80      36356.40      0.032769
      146.00000      37165.90      36356.40      0.022264
      149.00000      38172.50      36356.40      0.049953
      152.00000      37538.60      36356.40      0.032517
      155.00000      38655.20      36356.40      0.063229
      158.00000      39854.80      36356.40      0.096224
      161.00000      39744.90      36356.40      0.093202
      164.00000      38633.10      36356.40      0.062621
      167.00000      36723.10      36356.40      0.010084
      170.00000      39051.50      36356.40      0.074129
      173.00000      39019.80      36356.40      0.073258
      176.00000      38016.30      36356.40      0.045654
      179.00000      38556.70      36356.40      0.060520
      181.00000      38556.70      36356.40      0.060520
      184.00000      38016.30      36356.40      0.045654
      187.00000      39019.80      36356.40      0.073258
      190.00000      39051.50      36356.40      0.074129
      193.00000      36723.10      36356.40      0.010084
      196.00000      38633.10      36356.40      0.062621
      199.00000      39744.90      36356.40      0.093202
      202.00000      39854.80      36356.40      0.096224
      205.00000      38655.20      36356.40      0.063229
      208.00000      37538.60      36356.40      0.032517
      211.00000      38172.50      36356.40      0.049953
      214.00000      37165.90      36356.40      0.022264
      217.00000      37547.80      36356.40      0.032769
      220.00000      37203.60      36356.40      0.023302
      223.00000      38170.70      36356.40      0.049903
      226.00000      37286.70      36356.40      0.025587
      229.00000      36599.30      36356.40      0.006680
      232.00000      35345.00      36356.40      -0.027818
      235.00000      35559.50      36356.40      -0.021919
      238.00000      34400.60      36356.40      -0.053795
      241.00000      34376.70      36356.40      -0.054454
      244.00000      35577.90      36356.40      -0.021412
      247.00000      35412.00      36356.40      -0.025978
      250.00000      34585.00      36356.40      -0.048723
      253.00000      34644.50      36356.40      -0.047086
      256.00000      34256.30      36356.40      -0.057766
      259.00000      33325.20      36356.40      -0.083375
      262.00000      35037.20      36356.40      -0.036285
      265.00000      36271.70      36356.40      -0.002329
      268.00000      36926.50      36356.40      0.015679
      272.00000      36926.50      36356.40      0.015679
      275.00000      36271.70      36356.40      -0.002329
      278.00000      35037.20      36356.40      -0.036285
      281.00000      33325.20      36356.40      -0.083375
      284.00000      34256.30      36356.40      -0.057766
      287.00000      34644.50      36356.40      -0.047086
      290.00000      34585.00      36356.40      -0.048723
      293.00000      35412.00      36356.40      -0.025978
      296.00000      35577.90      36356.40      -0.021412
      299.00000      34376.70      36356.40      -0.054454
      302.00000      34400.60      36356.40      -0.053795
      305.00000      35559.50      36356.40      -0.021919
      308.00000      35345.00      36356.40      -0.027818
      311.00000      36599.30      36356.40      0.006680
      314.00000      37286.70      36356.40      0.025587
      317.00000      38170.70      36356.40      0.049903
      320.00000      37203.60      36356.40      0.023302
      323.00000      37547.80      36356.40      0.032769
      326.00000      37165.90      36356.40      0.022264
      329.00000      38172.50      36356.40      0.049953
      332.00000      37538.60      36356.40      0.032517
      335.00000      38655.20      36356.40      0.063229
      338.00000      39854.80      36356.40      0.096224
      341.00000      39744.90      36356.40      0.093202
      344.00000      38633.10      36356.40      0.062621
      347.00000      36723.10      36356.40      0.010084
      350.00000      39051.50      36356.40      0.074129
      353.00000      39019.80      36356.40      0.073258
      356.00000      38016.30      36356.40      0.045654
      359.00000      38556.70      36356.40      0.060520
       2     120       19.5900     15.2000      1.00000      0.00000
      1.00000      36577.10      34729.10      0.053211
      4.00000      36523.90      34729.10      0.051679
      7.00000      41624.20      34729.10      0.198538
      10.00000      37403.70      34729.10      0.077011
      13.00000      38948.70      34729.10      0.121499
      16.00000      39239.50      34729.10      0.129873
      19.00000      39226.60      34729.10      0.129501
      22.00000      39311.40      34729.10      0.131944
      25.00000      37959.90      34729.10      0.093029
      28.00000      36970.70      34729.10      0.064545
      31.00000      35894.20      34729.10      0.033548
      34.00000      35174.60      34729.10      0.012827
      37.00000      34005.60      34729.10      -0.020833
      40.00000      33774.40      34729.10      -0.027491
      43.00000      33713.70      34729.10      -0.029240
      46.00000      34218.30      34729.10      -0.014710
      49.00000      34567.00      34729.10      -0.004670
      52.00000      34853.00      34729.10      0.003566
      55.00000      34579.60      34729.10      -0.004305
      58.00000      34355.90      34729.10      -0.010748
      61.00000      33764.80      34729.10      -0.027766
      64.00000      32506.30      34729.10      -0.064006
      67.00000      31740.50      34729.10      -0.086055
      70.00000      31998.10      34729.10      -0.078638
      73.00000      31549.40      34729.10      -0.091559
      76.00000      31052.80      34729.10      -0.105857
      79.00000      31585.80      34729.10      -0.090510
      82.00000      31851.90      34729.10      -0.082849
      85.00000      31483.00      34729.10      -0.093469
      88.00000      33136.20      34729.10      -0.045868
      92.00000      33136.20      34729.10      -0.045868
      95.00000      31483.00      34729.10      -0.093469
      98.00000      31851.90      34729.10      -0.082849
      101.00000      31585.80      34729.10      -0.090510
      104.00000      31052.80      34729.10      -0.105857
      107.00000      31549.40      34729.10      -0.091559
      110.00000      31998.10      34729.10      -0.078638
      113.00000      31740.50      34729.10      -0.086055
      116.00000      32506.30      34729.10      -0.064006
      119.00000      33764.80      34729.10      -0.027766
      122.00000      34355.90      34729.10      -0.010748
      125.00000      34579.60      34729.10      -0.004305
      128.00000      34853.00      34729.10      0.003566
      131.00000      34567.00      34729.10      -0.004670
      134.00000      34218.30      34729.10      -0.014710
      137.00000      33713.70      34729.10      -0.029240
      140.00000      33774.40      34729.10      -0.027491
      143.00000      34005.60      34729.10      -0.020833
      146.00000      35174.60      34729.10      0.012827
      149.00000      35894.20      34729.10      0.033548
      152.00000      36970.70      34729.10      0.064545
      155.00000      37959.90      34729.10      0.093029
      158.00000      39311.40      34729.10      0.131944
      161.00000      39226.60      34729.10      0.129501
      164.00000      39239.50      34729.10      0.129873
      167.00000      38948.70      34729.10      0.121499
      170.00000      37403.70      34729.10      0.077011
      173.00000      41624.20      34729.10      0.198538
      176.00000      36523.90      34729.10      0.051679
      179.00000      36577.10      34729.10      0.053211
      181.00000      36577.10      34729.10      0.053211
      184.00000      36523.90      34729.10      0.051679
      187.00000      41624.20      34729.10      0.198538
      190.00000      37403.70      34729.10      0.077011
      193.00000      38948.70      34729.10      0.121499
      196.00000      39239.50      34729.10      0.129873
      199.00000      39226.60      34729.10      0.129501
      202.00000      39311.40      34729.10      0.131944
      205.00000      37959.90      34729.10      0.093029
      208.00000      36970.70      34729.10      0.064545
      211.00000      35894.20      34729.10      0.033548
      214.00000      35174.60      34729.10      0.012827
      217.00000      34005.60      34729.10      -0.020833
      220.00000      33774.40      34729.10      -0.027491
      223.00000      33713.70      34729.10      -0.029240
      226.00000      34218.30      34729.10      -0.014710
      229.00000      34567.00      34729.10      -0.004670
      232.00000      34853.00      34729.10      0.003566
      235.00000      34579.60      34729.10      -0.004305
      238.00000      34355.90      34729.10      -0.010748
      241.00000      33764.80      34729.10      -0.027766
      244.00000      32506.30      34729.10      -0.064006
      247.00000      31740.50      34729.10      -0.086055
      250.00000      31998.10      34729.10      -0.078638
      253.00000      31549.40      34729.10      -0.091559
      256.00000      31052.80      34729.10      -0.105857
      259.00000      31585.80      34729.10      -0.090510
      262.00000      31851.90      34729.10      -0.082849
      265.00000      31483.00      34729.10      -0.093469
      268.00000      33136.20      34729.10      -0.045868
      272.00000      33136.20      34729.10      -0.045868
      275.00000      31483.00      34729.10      -0.093469
      278.00000      31851.90      34729.10      -0.082849
      281.00000      31585.80      34729.10      -0.090510
      284.00000      31052.80      34729.10      -0.105857
      287.00000      31549.40      34729.10      -0.091559
      290.00000      31998.10      34729.10      -0.078638
      293.00000      31740.50      34729.10      -0.086055
      296.00000      32506.30      34729.10      -0.064006
      299.00000      33764.80      34729.10      -0.027766
      302.00000      34355.90      34729.10      -0.010748
      305.00000      34579.60      34729.10      -0.004305
      308.00000      34853.00      34729.10      0.003566
      311.00000      34567.00      34729.10      -0.004670
      314.00000      34218.30      34729.10      -0.014710
      317.00000      33713.70      34729.10      -0.029240
      320.00000      33774.40      34729.10      -0.027491
      323.00000      34005.60      34729.10      -0.020833
      326.00000      35174.60      34729.10      0.012827
      329.00000      35894.20      34729.10      0.033548
      332.00000      36970.70      34729.10      0.064545
      335.00000      37959.90      34729.10      0.093029
      338.00000      39311.40      34729.10      0.131944
      341.00000      39226.60      34729.10      0.129501
      344.00000      39239.50      34729.10      0.129873
      347.00000      38948.70      34729.10      0.121499
      350.00000      37403.70      34729.10      0.077011
      353.00000      41624.20      34729.10      0.198538
      356.00000      36523.90      34729.10      0.051679
      359.00000      36577.10      34729.10      0.053211
       3     120       19.5900     18.2000      1.00000      0.00000
      1.00000      44254.10      40841.50      0.083558
      4.00000      44404.10      40841.50      0.087231
      7.00000      51315.40      40841.50      0.256453
      10.00000      48627.90      40841.50      0.190650
      13.00000      44206.80      40841.50      0.082399
      16.00000      47921.30      40841.50      0.173349
      19.00000      47539.80      40841.50      0.164007
      22.00000      45577.00      40841.50      0.115948
      25.00000      44872.20      40841.50      0.098693
      28.00000      45432.70      40841.50      0.112416
      31.00000      44680.00      40841.50      0.093986
      34.00000      42689.40      40841.50      0.045246
      37.00000      42100.50      40841.50      0.030827
      40.00000      41181.60      40841.50      0.008327
      43.00000      39489.10      40841.50      -0.033114
      46.00000      39597.80      40841.50      -0.030453
      49.00000      40855.60      40841.50      0.000346
      52.00000      42852.00      40841.50      0.049227
      55.00000      41022.30      40841.50      0.004427
      58.00000      42338.20      40841.50      0.036647
      61.00000      41178.60      40841.50      0.008255
      64.00000      39879.10      40841.50      -0.023565
      67.00000      37467.60      40841.50      -0.082609
      70.00000      37791.70      40841.50      -0.074674
      73.00000      36361.60      40841.50      -0.109690
      76.00000      36209.10      40841.50      -0.113424
      79.00000      34962.20      40841.50      -0.143953
      82.00000      35262.10      40841.50      -0.136612
      85.00000      36036.10      40841.50      -0.117660
      88.00000      36369.30      40841.50      -0.109502
      92.00000      36369.30      40841.50      -0.109502
      95.00000      36036.10      40841.50      -0.117660
      98.00000      35262.10      40841.50      -0.136612
      101.00000      34962.20      40841.50      -0.143953
      104.00000      36209.10      40841.50      -0.113424
      107.00000      36361.60      40841.50      -0.109690
      110.00000      37791.70      40841.50      -0.074674
      113.00000      37467.60      40841.50      -0.082609
      116.00000      39879.10      40841.50      -0.023565
      119.00000      41178.60      40841.50      0.008255
      122.00000      42338.20      40841.50      0.036647
      125.00000      41022.30      40841.50      0.004427
      128.00000      42852.00      40841.50      0.049227
      131.00000      40855.60      40841.50      0.000346
      134.00000      39597.80      40841.50      -0.030453
      137.00000      39489.10      40841.50      -0.033114
      140.00000      41181.60      40841.50      0.008327
      143.00000      42100.50      40841.50      0.030827
      146.00000      42689.40      40841.50      0.045246
      149.00000      44680.00      40841.50      0.093986
      152.00000      45432.70      40841.50      0.112416
      155.00000      44872.20      40841.50      0.098693
      158.00000      45577.00      40841.50      0.115948
      161.00000      47539.80      40841.50      0.164007
      164.00000      47921.30      40841.50      0.173349
      167.00000      44206.80      40841.50      0.082399
      170.00000      48627.90      40841.50      0.190650
      173.00000      51315.40      40841.50      0.256453
      176.00000      44404.10      40841.50      0.087231
      179.00000      44254.10      40841.50      0.083558
      181.00000      44254.10      40841.50      0.083558
      184.00000      44404.10      40841.50      0.087231
      187.00000      51315.40      40841.50      0.256453
      190.00000      48627.90      40841.50      0.190650
      193.00000      44206.80      40841.50      0.082399
      196.00000      47921.30      40841.50      0.173349
      199.00000      47539.80      40841.50      0.164007
      202.00000      45577.00      40841.50      0.115948
      205.00000      44872.20      40841.50      0.098693
      208.00000      45432.70      40841.50      0.112416
      211.00000      44680.00      40841.50      0.093986
      214.00000      42689.40      40841.50      0.045246
      217.00000      42100.50      40841.50      0.030827
      220.00000      41181.60      40841.50      0.008327
      223.00000      39489.10      40841.50      -0.033114
      226.00000      39597.80      40841.50      -0.030453
      229.00000      40855.60      40841.50      0.000346
      232.00000      42852.00      40841.50      0.049227
      235.00000      41022.30      40841.50      0.004427
      238.00000      42338.20      40841.50      0.036647
      241.00000      41178.60      40841.50      0.008255
      244.00000      39879.10      40841.50      -0.023565
      247.00000      37467.60      40841.50      -0.082609
      250.00000      37791.70      40841.50      -0.074674
      253.00000      36361.60      40841.50      -0.109690
      256.00000      36209.10      40841.50      -0.113424
      259.00000      34962.20      40841.50      -0.143953
